# Averaged α,β-unsaturated n-aldehyde absorption cross sections using
# the average of crotonaldehyde cross sections by Lee et al. 2007 up to 225nm and
# unpublished highres data by Magneron 1999 above 225nm in the files
# crotonaldehyde_Lee07.abs and crotonaldehyde_Mag99.abs as well as 2-hexenal
# cross sections by Jiminez et al. 2007 in hexenal_Jim07.abs
# Mean is calculated using auxdata v0.7.1 (https://github.com/pb866/auxdata.git)
# where the mean outside the common data range is adjusted by an offset
# mean(all data) - mean(remaining data)
# and no data is used after the first negative value of the adjusted mean.
#
# λ/nm    σ/cm2
105.970  5.84e-17
105.990  5.73e-17
106.010  5.82e-17
106.030  5.69e-17
106.050  5.86e-17
106.070  5.58e-17
106.090  5.62e-17
106.110  5.73e-17
106.130  5.86e-17
106.150  5.76e-17
106.170  5.86e-17
106.190  6.03e-17
106.210  5.80e-17
106.230  5.90e-17
106.250  5.94e-17
106.270  5.90e-17
106.290  6.05e-17
106.310  5.99e-17
106.330  5.68e-17
106.350  5.90e-17
106.370  5.90e-17
106.390  6.06e-17
106.410  6.05e-17
106.430  5.68e-17
106.450  6.05e-17
106.470  5.91e-17
106.490  5.97e-17
106.510  5.93e-17
106.530  5.95e-17
106.550  6.00e-17
106.570  5.87e-17
106.590  5.83e-17
106.610  5.89e-17
106.630  6.09e-17
106.650  5.86e-17
106.670  6.19e-17
106.690  5.80e-17
106.710  5.89e-17
106.730  5.92e-17
106.750  5.95e-17
106.770  5.98e-17
106.790  6.01e-17
106.810  5.70e-17
106.830  6.03e-17
106.850  6.01e-17
106.870  5.93e-17
106.890  5.92e-17
106.910  5.88e-17
106.930  5.95e-17
106.950  5.93e-17
106.970  6.07e-17
106.990  5.74e-17
107.010  5.85e-17
107.030  5.83e-17
107.050  6.13e-17
107.070  5.99e-17
107.090  6.03e-17
107.110  5.93e-17
107.130  6.02e-17
107.150  5.97e-17
107.170  5.86e-17
107.190  5.77e-17
107.210  6.06e-17
107.230  5.91e-17
107.250  5.86e-17
107.270  5.80e-17
107.290  5.99e-17
107.310  5.83e-17
107.330  6.08e-17
107.350  6.16e-17
107.370  5.99e-17
107.390  6.05e-17
107.410  6.14e-17
107.430  5.98e-17
107.450  6.03e-17
107.470  6.01e-17
107.490  5.96e-17
107.510  5.96e-17
107.530  6.01e-17
107.550  5.96e-17
107.570  6.05e-17
107.590  6.03e-17
107.610  6.07e-17
107.630  5.85e-17
107.650  5.95e-17
107.670  5.82e-17
107.690  5.94e-17
107.710  6.00e-17
107.730  5.75e-17
107.750  5.96e-17
107.770  5.90e-17
107.790  5.81e-17
107.810  5.84e-17
107.830  5.95e-17
107.850  6.12e-17
107.870  5.96e-17
107.890  5.92e-17
107.910  6.13e-17
107.930  5.95e-17
107.950  5.85e-17
107.970  5.95e-17
107.990  5.99e-17
108.010  5.91e-17
108.030  6.12e-17
108.050  5.94e-17
108.070  6.01e-17
108.090  5.87e-17
108.110  6.07e-17
108.130  5.94e-17
108.150  5.79e-17
108.170  5.82e-17
108.190  5.72e-17
108.210  5.96e-17
108.230  5.85e-17
108.250  5.91e-17
108.270  6.07e-17
108.290  5.99e-17
108.310  6.06e-17
108.330  5.80e-17
108.350  5.89e-17
108.370  5.95e-17
108.390  5.96e-17
108.410  5.87e-17
108.430  5.88e-17
108.450  5.92e-17
108.470  5.97e-17
108.490  5.98e-17
108.510  6.00e-17
108.530  6.05e-17
108.550  5.86e-17
108.570  5.76e-17
108.590  5.87e-17
108.610  5.91e-17
108.630  5.94e-17
108.650  5.81e-17
108.670  5.83e-17
108.690  5.86e-17
108.710  5.79e-17
108.730  5.89e-17
108.750  5.83e-17
108.770  5.87e-17
108.790  5.96e-17
108.810  6.07e-17
108.830  6.39e-17
108.850  6.05e-17
108.870  5.86e-17
108.890  5.97e-17
108.910  5.80e-17
108.930  5.96e-17
108.950  5.99e-17
108.970  5.74e-17
108.990  5.86e-17
109.010  6.02e-17
109.030  5.86e-17
109.050  5.96e-17
109.070  5.97e-17
109.090  5.88e-17
109.110  5.92e-17
109.130  5.83e-17
109.150  5.97e-17
109.170  5.83e-17
109.190  5.86e-17
109.210  5.89e-17
109.230  5.91e-17
109.250  5.92e-17
109.270  5.85e-17
109.290  5.79e-17
109.310  5.85e-17
109.330  5.89e-17
109.350  5.84e-17
109.370  5.93e-17
109.390  5.81e-17
109.410  5.76e-17
109.430  5.97e-17
109.450  5.83e-17
109.470  5.79e-17
109.490  5.78e-17
109.510  5.79e-17
109.530  5.80e-17
109.550  5.81e-17
109.570  5.92e-17
109.590  5.81e-17
109.610  5.82e-17
109.630  5.73e-17
109.650  5.79e-17
109.670  5.78e-17
109.690  5.85e-17
109.710  5.74e-17
109.730  5.76e-17
109.750  5.75e-17
109.770  5.77e-17
109.790  5.81e-17
109.810  5.74e-17
109.830  5.73e-17
109.850  5.81e-17
109.870  5.77e-17
109.890  5.78e-17
109.910  5.86e-17
109.930  5.69e-17
109.950  5.78e-17
109.970  5.56e-17
109.990  5.79e-17
110.010  5.80e-17
110.030  5.69e-17
110.050  5.72e-17
110.070  5.86e-17
110.090  5.69e-17
110.110  5.83e-17
110.130  5.73e-17
110.150  5.68e-17
110.170  5.70e-17
110.190  5.86e-17
110.210  5.76e-17
110.230  5.76e-17
110.250  5.93e-17
110.270  5.71e-17
110.290  5.94e-17
110.310  5.87e-17
110.330  5.84e-17
110.350  5.78e-17
110.370  5.69e-17
110.390  5.74e-17
110.410  5.69e-17
110.430  5.75e-17
110.450  5.73e-17
110.470  5.85e-17
110.490  5.70e-17
110.510  5.78e-17
110.530  5.70e-17
110.550  5.73e-17
110.570  5.74e-17
110.590  5.75e-17
110.610  5.70e-17
110.630  5.81e-17
110.650  5.85e-17
110.670  5.71e-17
110.690  5.78e-17
110.710  5.62e-17
110.730  5.73e-17
110.750  5.72e-17
110.770  5.73e-17
110.790  5.70e-17
110.810  5.79e-17
110.830  5.70e-17
110.850  5.81e-17
110.870  5.72e-17
110.890  5.71e-17
110.910  5.75e-17
110.930  5.84e-17
110.950  5.71e-17
110.970  5.76e-17
110.990  5.74e-17
111.010  5.80e-17
111.030  5.74e-17
111.050  5.80e-17
111.070  5.63e-17
111.090  5.65e-17
111.110  5.68e-17
111.130  5.56e-17
111.150  5.75e-17
111.170  5.79e-17
111.190  5.77e-17
111.210  5.70e-17
111.230  5.76e-17
111.250  5.81e-17
111.270  5.70e-17
111.290  5.65e-17
111.310  5.62e-17
111.330  5.71e-17
111.350  5.64e-17
111.370  5.75e-17
111.390  5.78e-17
111.410  5.86e-17
111.430  5.74e-17
111.450  5.75e-17
111.470  5.72e-17
111.490  5.84e-17
111.510  5.76e-17
111.530  5.64e-17
111.550  5.81e-17
111.570  5.66e-17
111.590  5.67e-17
111.610  5.64e-17
111.630  5.68e-17
111.650  5.79e-17
111.670  5.63e-17
111.690  5.67e-17
111.710  5.69e-17
111.730  5.71e-17
111.750  5.68e-17
111.770  5.63e-17
111.790  5.75e-17
111.810  5.67e-17
111.830  5.86e-17
111.850  5.72e-17
111.870  5.70e-17
111.890  5.68e-17
111.910  5.74e-17
111.930  5.77e-17
111.950  5.77e-17
111.970  5.74e-17
111.990  5.73e-17
112.010  5.78e-17
112.030  5.81e-17
112.050  5.75e-17
112.070  5.76e-17
112.090  5.70e-17
112.110  5.81e-17
112.130  5.71e-17
112.150  5.81e-17
112.170  5.94e-17
112.190  5.78e-17
112.210  5.69e-17
112.230  5.82e-17
112.250  5.86e-17
112.270  5.77e-17
112.280  5.80e-17
112.300  5.80e-17
112.320  5.75e-17
112.340  5.67e-17
112.360  5.62e-17
112.380  5.70e-17
112.400  5.72e-17
112.420  5.71e-17
112.440  5.72e-17
112.460  5.73e-17
112.480  5.75e-17
112.500  5.70e-17
112.520  5.75e-17
112.540  5.64e-17
112.560  5.71e-17
112.580  5.68e-17
112.600  5.77e-17
112.620  5.73e-17
112.640  5.66e-17
112.660  5.60e-17
112.680  5.65e-17
112.700  5.76e-17
112.720  5.64e-17
112.740  5.75e-17
112.760  5.87e-17
112.780  5.76e-17
112.800  5.69e-17
112.820  5.69e-17
112.840  5.67e-17
112.860  5.78e-17
112.880  5.67e-17
112.900  5.68e-17
112.920  5.75e-17
112.940  5.74e-17
112.960  5.75e-17
112.980  5.79e-17
113.000  5.84e-17
113.020  5.63e-17
113.040  5.68e-17
113.060  5.71e-17
113.080  5.72e-17
113.100  5.66e-17
113.120  5.70e-17
113.140  5.74e-17
113.160  5.62e-17
113.180  5.74e-17
113.200  5.75e-17
113.220  5.73e-17
113.240  5.69e-17
113.260  5.78e-17
113.280  5.67e-17
113.300  5.78e-17
113.320  5.76e-17
113.340  5.65e-17
113.360  5.71e-17
113.380  5.72e-17
113.400  5.69e-17
113.420  5.59e-17
113.440  5.74e-17
113.460  5.58e-17
113.480  5.73e-17
113.500  5.62e-17
113.520  5.66e-17
113.540  5.70e-17
113.560  5.65e-17
113.580  5.71e-17
113.600  5.72e-17
113.620  5.70e-17
113.640  5.71e-17
113.660  5.65e-17
113.680  5.69e-17
113.700  5.71e-17
113.720  5.67e-17
113.740  5.72e-17
113.760  5.61e-17
113.780  5.67e-17
113.800  5.66e-17
113.820  5.68e-17
113.840  5.62e-17
113.860  5.60e-17
113.880  5.65e-17
113.900  5.67e-17
113.920  5.71e-17
113.940  5.66e-17
113.960  5.66e-17
113.980  5.59e-17
114.000  5.65e-17
114.020  5.63e-17
114.040  5.65e-17
114.060  5.62e-17
114.080  5.70e-17
114.100  5.63e-17
114.120  5.60e-17
114.140  5.62e-17
114.160  5.69e-17
114.180  5.61e-17
114.200  5.69e-17
114.220  5.58e-17
114.240  5.59e-17
114.260  5.65e-17
114.280  5.68e-17
114.300  5.64e-17
114.320  5.56e-17
114.340  5.68e-17
114.360  5.61e-17
114.380  5.55e-17
114.400  5.63e-17
114.420  5.62e-17
114.440  5.60e-17
114.460  5.60e-17
114.480  5.60e-17
114.500  5.61e-17
114.520  5.63e-17
114.540  5.59e-17
114.560  5.61e-17
114.580  5.62e-17
114.600  5.69e-17
114.620  5.54e-17
114.640  5.60e-17
114.660  5.63e-17
114.680  5.65e-17
114.700  5.64e-17
114.720  5.61e-17
114.740  5.70e-17
114.760  5.67e-17
114.780  5.60e-17
114.800  5.64e-17
114.820  5.70e-17
114.840  5.64e-17
114.860  5.67e-17
114.880  5.65e-17
114.900  5.62e-17
114.920  5.55e-17
114.940  5.61e-17
114.960  5.66e-17
114.980  5.57e-17
115.000  5.53e-17
115.020  5.62e-17
115.040  5.58e-17
115.060  5.69e-17
115.080  5.56e-17
115.100  5.59e-17
115.120  5.51e-17
115.140  5.55e-17
115.160  5.64e-17
115.180  5.69e-17
115.200  5.60e-17
115.220  5.59e-17
115.240  5.59e-17
115.260  5.59e-17
115.280  5.61e-17
115.300  5.60e-17
115.320  5.60e-17
115.340  5.57e-17
115.360  5.61e-17
115.380  5.64e-17
115.400  5.59e-17
115.420  5.65e-17
115.440  5.60e-17
115.460  5.65e-17
115.480  5.65e-17
115.500  5.56e-17
115.520  5.52e-17
115.540  5.58e-17
115.560  5.63e-17
115.580  5.62e-17
115.600  5.61e-17
115.620  5.56e-17
115.640  5.71e-17
115.660  5.59e-17
115.680  5.54e-17
115.700  5.62e-17
115.720  5.62e-17
115.740  5.64e-17
115.760  5.59e-17
115.780  5.64e-17
115.800  5.54e-17
115.820  5.59e-17
115.840  5.57e-17
115.860  5.57e-17
115.880  5.52e-17
115.900  5.62e-17
115.920  5.64e-17
115.940  5.62e-17
115.960  5.57e-17
115.980  5.56e-17
116.000  5.61e-17
116.020  5.52e-17
116.040  5.59e-17
116.060  5.54e-17
116.080  5.58e-17
116.100  5.53e-17
116.120  5.61e-17
116.140  5.61e-17
116.160  5.55e-17
116.180  5.64e-17
116.200  5.60e-17
116.220  5.56e-17
116.240  5.58e-17
116.260  5.66e-17
116.280  5.54e-17
116.300  5.56e-17
116.320  5.62e-17
116.340  5.61e-17
116.360  5.59e-17
116.380  5.55e-17
116.400  5.51e-17
116.420  5.54e-17
116.440  5.55e-17
116.460  5.55e-17
116.480  5.64e-17
116.500  5.53e-17
116.520  5.54e-17
116.540  5.55e-17
116.560  5.56e-17
116.580  5.63e-17
116.600  5.53e-17
116.620  5.50e-17
116.640  5.62e-17
116.660  5.50e-17
116.680  5.52e-17
116.700  5.57e-17
116.720  5.47e-17
116.740  5.55e-17
116.760  5.48e-17
116.780  5.51e-17
116.800  5.55e-17
116.820  5.58e-17
116.840  5.52e-17
116.860  5.69e-17
116.880  5.55e-17
116.900  5.51e-17
116.920  5.55e-17
116.940  5.59e-17
116.960  5.51e-17
116.980  5.51e-17
117.000  5.58e-17
117.020  5.54e-17
117.040  5.49e-17
117.060  5.57e-17
117.080  5.55e-17
117.100  5.50e-17
117.120  5.57e-17
117.140  5.49e-17
117.160  5.57e-17
117.180  5.56e-17
117.200  5.51e-17
117.220  5.52e-17
117.240  5.50e-17
117.260  5.58e-17
117.280  5.47e-17
117.300  5.53e-17
117.320  5.55e-17
117.340  5.54e-17
117.360  5.51e-17
117.380  5.50e-17
117.400  5.50e-17
117.420  5.52e-17
117.440  5.43e-17
117.460  5.43e-17
117.480  5.52e-17
117.500  5.45e-17
117.520  5.49e-17
117.540  5.55e-17
117.560  5.51e-17
117.580  5.54e-17
117.600  5.44e-17
117.620  5.41e-17
117.640  5.47e-17
117.660  5.47e-17
117.680  5.45e-17
117.700  5.45e-17
117.720  5.44e-17
117.740  5.40e-17
117.760  5.46e-17
117.780  5.50e-17
117.800  5.37e-17
117.820  5.36e-17
117.840  5.39e-17
117.860  5.37e-17
117.880  5.36e-17
117.900  5.39e-17
117.920  5.35e-17
117.940  5.40e-17
117.960  5.36e-17
117.980  5.42e-17
118.000  5.41e-17
118.020  5.45e-17
118.040  5.38e-17
118.060  5.36e-17
118.080  5.25e-17
118.100  5.38e-17
118.120  5.41e-17
118.140  5.32e-17
118.160  5.29e-17
118.180  5.35e-17
118.200  5.33e-17
118.220  5.31e-17
118.240  5.36e-17
118.260  5.29e-17
118.280  5.32e-17
118.300  5.30e-17
118.320  5.26e-17
118.340  5.26e-17
118.360  5.35e-17
118.380  5.32e-17
118.400  5.33e-17
118.420  5.26e-17
118.440  5.31e-17
118.460  5.29e-17
118.480  5.31e-17
118.500  5.29e-17
118.520  5.27e-17
118.540  5.22e-17
118.560  5.22e-17
118.580  5.27e-17
118.600  5.26e-17
118.620  5.31e-17
118.640  5.17e-17
118.660  5.29e-17
118.680  5.21e-17
118.700  5.26e-17
118.720  5.17e-17
118.740  5.24e-17
118.760  5.21e-17
118.780  5.29e-17
118.800  5.26e-17
118.820  5.25e-17
118.840  5.25e-17
118.860  5.18e-17
118.880  5.15e-17
118.900  5.17e-17
118.920  5.15e-17
118.940  5.27e-17
118.960  5.13e-17
118.980  5.16e-17
119.000  5.17e-17
119.020  5.15e-17
119.040  5.16e-17
119.060  5.14e-17
119.080  5.15e-17
119.100  5.15e-17
119.120  5.14e-17
119.140  5.14e-17
119.160  5.17e-17
119.180  5.09e-17
119.200  5.24e-17
119.220  5.09e-17
119.240  5.19e-17
119.260  5.17e-17
119.280  5.13e-17
119.300  5.14e-17
119.320  5.16e-17
119.340  5.21e-17
119.360  5.16e-17
119.380  5.15e-17
119.400  5.12e-17
119.420  5.12e-17
119.440  5.13e-17
119.460  5.10e-17
119.480  5.10e-17
119.490  5.11e-17
119.510  5.13e-17
119.530  5.09e-17
119.550  5.15e-17
119.570  5.06e-17
119.590  5.12e-17
119.610  5.10e-17
119.630  5.12e-17
119.650  5.10e-17
119.670  5.12e-17
119.690  5.11e-17
119.710  5.09e-17
119.730  5.08e-17
119.750  5.05e-17
119.770  5.05e-17
119.790  5.14e-17
119.810  5.04e-17
119.830  5.03e-17
119.850  5.07e-17
119.870  5.09e-17
119.890  5.01e-17
119.910  5.12e-17
119.930  5.05e-17
119.950  5.03e-17
119.970  5.01e-17
119.990  5.02e-17
120.010  5.04e-17
120.030  5.09e-17
120.050  5.01e-17
120.070  5.06e-17
120.090  5.06e-17
120.110  5.05e-17
120.130  4.95e-17
120.150  4.95e-17
120.170  5.03e-17
120.190  5.00e-17
120.210  5.08e-17
120.230  4.99e-17
120.250  4.98e-17
120.270  4.99e-17
120.290  4.96e-17
120.310  5.01e-17
120.330  4.95e-17
120.350  5.01e-17
120.370  4.98e-17
120.390  4.98e-17
120.410  5.00e-17
120.430  4.93e-17
120.450  4.97e-17
120.470  4.92e-17
120.490  4.96e-17
120.510  4.90e-17
120.530  4.92e-17
120.550  4.99e-17
120.570  4.96e-17
120.590  4.88e-17
120.610  4.92e-17
120.630  4.92e-17
120.650  4.86e-17
120.670  4.91e-17
120.690  4.93e-17
120.710  4.96e-17
120.730  4.94e-17
120.750  4.97e-17
120.770  4.89e-17
120.790  4.89e-17
120.810  4.91e-17
120.830  4.86e-17
120.850  4.88e-17
120.870  4.93e-17
120.890  4.89e-17
120.910  4.92e-17
120.930  4.84e-17
120.950  4.85e-17
120.970  4.87e-17
120.990  4.84e-17
121.010  4.83e-17
121.030  4.90e-17
121.050  4.87e-17
121.070  4.82e-17
121.090  4.90e-17
121.110  4.83e-17
121.130  4.85e-17
121.150  4.83e-17
121.170  4.85e-17
121.190  4.82e-17
121.210  4.84e-17
121.230  4.78e-17
121.250  4.86e-17
121.270  4.85e-17
121.290  4.78e-17
121.310  4.84e-17
121.330  4.79e-17
121.350  4.82e-17
121.370  4.80e-17
121.390  4.81e-17
121.410  4.81e-17
121.430  4.81e-17
121.450  4.81e-17
121.470  4.81e-17
121.490  4.81e-17
121.510  4.79e-17
121.530  4.81e-17
121.550  4.78e-17
121.570  4.82e-17
121.590  4.79e-17
121.610  4.85e-17
121.630  4.83e-17
121.650  4.77e-17
121.670  4.78e-17
121.690  4.82e-17
121.710  4.81e-17
121.730  4.75e-17
121.750  4.75e-17
121.770  4.75e-17
121.790  4.75e-17
121.810  4.72e-17
121.830  4.76e-17
121.850  4.82e-17
121.870  4.82e-17
121.890  4.74e-17
121.910  4.76e-17
121.930  4.75e-17
121.950  4.74e-17
121.970  4.80e-17
121.990  4.74e-17
122.010  4.75e-17
122.030  4.79e-17
122.050  4.81e-17
122.070  4.74e-17
122.090  4.73e-17
122.110  4.74e-17
122.130  4.74e-17
122.150  4.77e-17
122.170  4.75e-17
122.190  4.73e-17
122.210  4.79e-17
122.230  4.79e-17
122.250  4.76e-17
122.270  4.69e-17
122.290  4.70e-17
122.310  4.72e-17
122.330  4.74e-17
122.350  4.72e-17
122.370  4.70e-17
122.390  4.72e-17
122.410  4.74e-17
122.430  4.75e-17
122.450  4.72e-17
122.470  4.71e-17
122.490  4.68e-17
122.510  4.70e-17
122.530  4.68e-17
122.550  4.68e-17
122.570  4.67e-17
122.590  4.71e-17
122.610  4.69e-17
122.630  4.70e-17
122.650  4.66e-17
122.670  4.66e-17
122.690  4.68e-17
122.710  4.64e-17
122.730  4.67e-17
122.750  4.63e-17
122.770  4.61e-17
122.790  4.64e-17
122.810  4.62e-17
122.830  4.59e-17
122.850  4.62e-17
122.870  4.63e-17
122.890  4.60e-17
122.910  4.61e-17
122.930  4.64e-17
122.950  4.61e-17
122.970  4.57e-17
122.990  4.59e-17
123.010  4.60e-17
123.030  4.59e-17
123.050  4.54e-17
123.070  4.60e-17
123.090  4.61e-17
123.110  4.60e-17
123.130  4.56e-17
123.150  4.60e-17
123.170  4.56e-17
123.190  4.60e-17
123.210  4.58e-17
123.230  4.53e-17
123.250  4.52e-17
123.270  4.53e-17
123.290  4.57e-17
123.310  4.51e-17
123.330  4.58e-17
123.350  4.54e-17
123.370  4.53e-17
123.390  4.53e-17
123.410  4.49e-17
123.430  4.50e-17
123.450  4.51e-17
123.470  4.52e-17
123.490  4.51e-17
123.510  4.53e-17
123.530  4.50e-17
123.550  4.50e-17
123.570  4.48e-17
123.590  4.52e-17
123.610  4.50e-17
123.630  4.48e-17
123.650  4.45e-17
123.670  4.49e-17
123.690  4.43e-17
123.710  4.40e-17
123.730  4.44e-17
123.750  4.44e-17
123.770  4.44e-17
123.790  4.43e-17
123.810  4.43e-17
123.830  4.42e-17
123.850  4.39e-17
123.870  4.48e-17
123.890  4.41e-17
123.910  4.43e-17
123.930  4.44e-17
123.950  4.35e-17
123.970  4.40e-17
123.990  4.39e-17
124.010  4.43e-17
124.030  4.40e-17
124.050  4.40e-17
124.070  4.39e-17
124.090  4.37e-17
124.110  4.38e-17
124.130  4.32e-17
124.150  4.39e-17
124.170  4.35e-17
124.190  4.41e-17
124.210  4.37e-17
124.230  4.35e-17
124.250  4.37e-17
124.270  4.33e-17
124.290  4.29e-17
124.310  4.36e-17
124.330  4.32e-17
124.350  4.35e-17
124.370  4.35e-17
124.390  4.31e-17
124.410  4.34e-17
124.430  4.35e-17
124.450  4.26e-17
124.470  4.29e-17
124.490  4.31e-17
124.510  4.28e-17
124.530  4.28e-17
124.550  4.26e-17
124.570  4.27e-17
124.590  4.27e-17
124.610  4.23e-17
124.630  4.23e-17
124.650  4.23e-17
124.670  4.22e-17
124.690  4.22e-17
124.710  4.15e-17
124.730  4.20e-17
124.750  4.18e-17
124.770  4.13e-17
124.790  4.13e-17
124.810  4.19e-17
124.830  4.18e-17
124.850  4.13e-17
124.870  4.12e-17
124.890  4.13e-17
124.910  4.13e-17
124.930  4.08e-17
124.950  4.13e-17
124.970  4.09e-17
124.990  4.10e-17
125.010  4.11e-17
125.030  4.09e-17
125.050  4.09e-17
125.070  4.07e-17
125.090  4.09e-17
125.110  4.09e-17
125.130  4.05e-17
125.150  4.02e-17
125.170  4.06e-17
125.190  4.05e-17
125.210  4.04e-17
125.230  4.06e-17
125.250  4.01e-17
125.270  4.05e-17
125.290  4.05e-17
125.310  3.98e-17
125.330  4.03e-17
125.350  4.00e-17
125.370  3.96e-17
125.390  3.94e-17
125.410  3.97e-17
125.430  3.91e-17
125.450  3.90e-17
125.470  3.92e-17
125.490  3.91e-17
125.510  3.91e-17
125.530  3.94e-17
125.550  3.91e-17
125.570  3.87e-17
125.590  3.87e-17
125.610  3.87e-17
125.630  3.87e-17
125.650  3.88e-17
125.670  3.84e-17
125.690  3.82e-17
125.710  3.81e-17
125.730  3.79e-17
125.750  3.80e-17
125.770  3.77e-17
125.790  3.77e-17
125.810  3.79e-17
125.830  3.77e-17
125.850  3.80e-17
125.870  3.74e-17
125.890  3.75e-17
125.910  3.74e-17
125.930  3.76e-17
125.950  3.73e-17
125.970  3.69e-17
125.990  3.73e-17
126.010  3.72e-17
126.030  3.69e-17
126.050  3.67e-17
126.070  3.68e-17
126.090  3.68e-17
126.110  3.68e-17
126.130  3.68e-17
126.150  3.67e-17
126.170  3.65e-17
126.190  3.61e-17
126.210  3.62e-17
126.230  3.61e-17
126.250  3.60e-17
126.270  3.60e-17
126.290  3.63e-17
126.310  3.59e-17
126.330  3.61e-17
126.350  3.56e-17
126.370  3.54e-17
126.390  3.54e-17
126.410  3.53e-17
126.430  3.50e-17
126.450  3.52e-17
126.470  3.49e-17
126.490  3.49e-17
126.510  3.46e-17
126.530  3.51e-17
126.550  3.41e-17
126.570  3.45e-17
126.590  3.44e-17
126.610  3.42e-17
126.630  3.43e-17
126.650  3.41e-17
126.670  3.40e-17
126.690  3.42e-17
126.710  3.39e-17
126.730  3.38e-17
126.750  3.40e-17
126.770  3.37e-17
126.790  3.36e-17
126.810  3.35e-17
126.830  3.30e-17
126.850  3.30e-17
126.870  3.28e-17
126.890  3.30e-17
126.910  3.30e-17
126.930  3.30e-17
126.950  3.22e-17
126.970  3.28e-17
126.990  3.24e-17
127.010  3.24e-17
127.030  3.24e-17
127.050  3.23e-17
127.070  3.24e-17
127.090  3.22e-17
127.110  3.16e-17
127.130  3.18e-17
127.150  3.16e-17
127.170  3.13e-17
127.190  3.13e-17
127.210  3.09e-17
127.230  3.12e-17
127.250  3.11e-17
127.270  3.07e-17
127.290  3.05e-17
127.310  3.04e-17
127.330  2.99e-17
127.350  3.01e-17
127.370  3.01e-17
127.390  3.04e-17
127.410  3.03e-17
127.430  3.00e-17
